File: data/Maehlum_2022-09-06_EDS-SEM-APREO/GaAs_10kV.emsa
#FORMAT      : EMSA/MAS Spectral Data File
#VERSION     : 1.0
#TITLE       : GaAs_10kV
#DATE        : 06-SEP-2022
#TIME        : 16:53
#OWNER       :
#NPOINTS     : 2048.0
#NCOLUMNS    : 1.0
#XUNITS      : keV
#YUNITS      : counts
#DATATYPE    : XY
#XPERCHAN    : 0.01
#OFFSET      : -0.2
#SIGNALTYPE  : EDS
#CHOFFSET    : 20.0
#LIVETIME    : 55.0
#REALTIME    : 157.212
#BEAMKV      : 10.0
#MAGCAM      : 2936.0
#XTILTSTGE   : 0.0
#AZIMANGLE   : 0.0
#ELEVANGLE   : 35.0
#XPOSITION mm: -15.6696
#YPOSITION mm: -6.9174
#ZPOSITION mm: 9.9088
##OXINSTPT   : 5
##OXINSTSTROB: 36.74
##OXINSTNDET : 1
##OXINSTELEMS: 25,50,8,12
##OXINSTLABEL: 25, 5.899, Mn
##OXINSTLABEL: 25, 6.490, Mn
##OXINSTLABEL: 25, 0.636, Mn
##OXINSTLABEL: 25, 0.556, Mn
##OXINSTLABEL: 50, 3.444, Sn
##OXINSTLABEL: 50, 3.666, Sn
##OXINSTLABEL: 50, 3.905, Sn
##OXINSTLABEL: 50, 3.272, Sn
##OXINSTLABEL: 50, 4.131, Sn
##OXINSTLABEL: 50, 4.377, Sn
##OXINSTLABEL: 50, 3.045, Sn
##OXINSTLABEL: 50, 0.397, Sn
##OXINSTLABEL: 8, 0.522, O
##OXINSTLABEL: 12, 1.254, Mg
#SPECTRUM    : Spectral Data Starts Here
-0.20000, 0.0
-0.13000, 0.0
-0.06000, 2.0
0.01000, 2678.0
0.08000, 547.0
0.15000, 878.0
0.22000, 1590.0
0.29000, 2701.0
0.36000, 1584.0
0.43000, 2584.0
0.50000, 5048.0
0.57000, 3669.0
0.64000, 4237.0
0.71000, 5170.0
0.78000, 5580.0
0.85000, 6094.0
0.92000, 9267.0
0.99000, 14221.0
1.06000, 52768.0
1.13000, 128276.0
1.20000, 10626.0
1.27000, 84015.0
1.34000, 46097.0
1.41000, 4753.0
1.48000, 2766.0
1.55000, 2793.0
1.62000, 2637.0
1.69000, 2773.0
1.76000, 3040.0
1.83000, 2908.0
1.90000, 2652.0
1.97000, 2751.0
2.04000, 2667.0
2.11000, 2824.0
2.18000, 3427.0
2.25000, 3511.0
2.32000, 2915.0
2.39000, 3893.0
2.46000, 3126.0
2.53000, 2692.0
2.60000, 2723.0
2.67000, 2360.0
2.74000, 2240.0
2.81000, 2175.0
2.88000, 2067.0
2.95000, 2111.0
3.02000, 2021.0
3.09000, 2004.0
3.16000, 1989.0
3.23000, 1932.0
3.30000, 1907.0
3.37000, 1804.0
3.44000, 1773.0
3.51000, 1723.0
3.58000, 1679.0
3.65000, 1701.0
3.72000, 1640.0
3.79000, 1562.0
3.86000, 1506.0
3.93000, 1488.0
4.00000, 1508.0
4.07000, 1431.0
4.14000, 1394.0
4.21000, 1331.0
4.28000, 1310.0
4.35000, 1326.0
4.42000, 1218.0
4.49000, 1244.0
4.56000, 1210.0
4.63000, 1144.0
4.70000, 1100.0
4.77000, 1092.0
4.84000, 1087.0
4.91000, 1054.0
4.98000, 985.0
5.05000, 1005.0
5.12000, 971.0
5.19000, 953.0
5.26000, 912.0
5.33000, 899.0
5.40000, 883.0
5.47000, 836.0
5.54000, 802.0
5.61000, 842.0
5.68000, 759.0
5.75000, 747.0
5.82000, 712.0
5.89000, 691.0
5.96000, 702.0
6.03000, 700.0
6.10000, 704.0
6.17000, 623.0
6.24000, 634.0
6.31000, 652.0
6.38000, 579.0
6.45000, 600.0
6.52000, 557.0
6.59000, 530.0
6.66000, 545.0
6.73000, 547.0
6.80000, 511.0
6.87000, 523.0
6.94000, 462.0
7.01000, 457.0
7.08000, 425.0
7.15000, 437.0
7.22000, 403.0
7.29000, 421.0
7.36000, 381.0
7.43000, 361.0
7.50000, 370.0
7.57000, 360.0
7.64000, 355.0
7.71000, 346.0
7.78000, 340.0
7.85000, 294.0
7.92000, 294.0
7.99000, 304.0
8.06000, 288.0
8.13000, 269.0
8.20000, 270.0
8.27000, 237.0
8.34000, 249.0
8.41000, 244.0
8.48000, 214.0
8.55000, 188.0
8.62000, 189.0
8.69000, 189.0
8.76000, 182.0
8.83000, 186.0
8.90000, 160.0
8.97000, 151.0
9.04000, 152.0
9.11000, 126.0
9.18000, 127.0
9.25000, 104.0
9.32000, 103.0
9.39000, 97.0
9.46000, 90.0
9.53000, 81.0
9.60000, 75.0
9.67000, 57.0
9.74000, 47.0
9.81000, 42.0
9.88000, 37.0
9.95000, 25.0
10.02000, 22.0
10.09000, 14.0
10.16000, 10.0
10.23000, 13.0
10.30000, 5.0
10.37000, 10.0
10.44000, 8.0
10.51000, 11.0
10.58000, 9.0
10.65000, 8.0
10.72000, 5.0
10.79000, 7.0
10.86000, 7.0
10.93000, 5.0
11.00000, 7.0
11.07000, 5.0
11.14000, 4.0
11.21000, 4.0
11.28000, 5.0
11.35000, 3.0
11.42000, 3.0
11.49000, 4.0
11.56000, 2.0
11.63000, 2.0
11.70000, 3.0
11.77000, 5.0
11.84000, 4.0
11.91000, 4.0
11.98000, 3.0
12.05000, 3.0
12.12000, 3.0
12.19000, 3.0
12.26000, 4.0
12.33000, 2.0
12.40000, 1.0
12.47000, 2.0
12.54000, 2.0
12.61000, 3.0
12.68000, 2.0
12.75000, 1.0
12.82000, 1.0
12.89000, 1.0
12.96000, 1.0
13.03000, 1.0
13.10000, 2.0
13.17000, 1.0
13.24000, 0.0
13.31000, 2.0
13.38000, 4.0
13.45000, 0.0
13.52000, 1.0
13.59000, 1.0
13.66000, 1.0
13.73000, 2.0
13.80000, 0.0
13.87000, 0.0
13.94000, 1.0
14.01000, 1.0
14.08000, 1.0
14.15000, 1.0
14.22000, 0.0
14.29000, 2.0
14.36000, 1.0
14.43000, 0.0
14.50000, 1.0
14.57000, 0.0
14.64000, 0.0
14.71000, 1.0
14.78000, 0.0
14.85000, 0.0
14.92000, 0.0
14.99000, 1.0
15.06000, 0.0
15.13000, 1.0
15.20000, 1.0
15.27000, 1.0
15.34000, 0.0
15.41000, 0.0
15.48000, 0.0
15.55000, 1.0
15.62000, 1.0
15.69000, 1.0
15.76000, 0.0
15.83000, 1.0
15.90000, 1.0
15.97000, 0.0
16.04000, 1.0
16.11000, 0.0
16.18000, 1.0
16.25000, 1.0
16.32000, 1.0
16.39000, 0.0
16.46000, 0.0
16.53000, 0.0
16.60000, 0.0
16.67000, 0.0
16.74000, 0.0
16.81000, 0.0
16.88000, 0.0
16.95000, 0.0
17.02000, 0.0
17.09000, 0.0
17.16000, 1.0
17.23000, 0.0
17.30000, 0.0
17.37000, 0.0
17.44000, 0.0
17.51000, 0.0
17.58000, 0.0
17.65000, 0.0
17.72000, 0.0
17.79000, 0.0
17.86000, 0.0
17.93000, 0.0
18.00000, 0.0
18.07000, 0.0
18.14000, 0.0
18.21000, 0.0
18.28000, 0.0
18.35000, 0.0
18.42000, 0.0
18.49000, 0.0
18.56000, 0.0
18.63000, 0.0
18.70000, 0.0
18.77000, 0.0
18.84000, 0.0
18.91000, 0.0
18.98000, 0.0
19.05000, 0.0
19.12000, 0.0
19.19000, 0.0
19.26000, 0.0
19.33000, 0.0
19.40000, 0.0
19.47000, 0.0
19.54000, 0.0
19.61000, 0.0
19.68000, 0.0
19.75000, 0.0
19.82000, 0.0
19.89000, 0.0
19.96000, 0.0
20.03000, 0.0
20.10000, 0.0
20.17000, 0.0
20.24000, 0.0
20.27000, 0.0
#ENDOFDATA   :