File: data/Maehlum_2022-09-06_EDS-SEM-APREO/GaAs_15kV.emsa
#FORMAT      : EMSA/MAS Spectral Data File
#VERSION     : 1.0
#TITLE       : GaAs_15kV
#DATE        : 06-SEP-2022
#TIME        : 16:57
#OWNER       :
#NPOINTS     : 2048.0
#NCOLUMNS    : 1.0
#XUNITS      : keV
#YUNITS      : counts
#DATATYPE    : XY
#XPERCHAN    : 0.01
#OFFSET      : -0.2
#SIGNALTYPE  : EDS
#CHOFFSET    : 20.0
#LIVETIME    : 46.4295
#REALTIME    : 113.416
#BEAMKV      : 15.05
#MAGCAM      : 2936.0
#XTILTSTGE   : 0.0
#AZIMANGLE   : 0.0
#ELEVANGLE   : 35.0
#XPOSITION mm: -15.6696
#YPOSITION mm: -6.9174
#ZPOSITION mm: 9.9088
##OXINSTPT   : 5
##OXINSTSTROB: 36.94
##OXINSTNDET : 1
##OXINSTELEMS: 25,50,8,12
##OXINSTLABEL: 25, 5.899, Mn
##OXINSTLABEL: 25, 6.490, Mn
##OXINSTLABEL: 25, 0.636, Mn
##OXINSTLABEL: 25, 0.556, Mn
##OXINSTLABEL: 50, 3.444, Sn
##OXINSTLABEL: 50, 3.666, Sn
##OXINSTLABEL: 50, 3.905, Sn
##OXINSTLABEL: 50, 3.272, Sn
##OXINSTLABEL: 50, 4.131, Sn
##OXINSTLABEL: 50, 4.377, Sn
##OXINSTLABEL: 50, 3.045, Sn
##OXINSTLABEL: 50, 0.397, Sn
##OXINSTLABEL: 8, 0.522, O
##OXINSTLABEL: 12, 1.254, Mg
#SPECTRUM    : Spectral Data Starts Here
-0.20000, 0.0
-0.13000, 0.0
-0.06000, 1.0
0.01000, 2355.0
0.08000, 330.0
0.15000, 443.0
0.22000, 768.0
0.29000, 1694.0
0.36000, 675.0
0.43000, 1112.0
0.50000, 1791.0
0.57000, 1589.0
0.64000, 2116.0
0.71000, 2570.0
0.78000, 2984.0
0.85000, 3483.0
0.92000, 5766.0
0.99000, 9207.0
1.06000, 36864.0
1.13000, 86103.0
1.20000, 6197.0
1.27000, 49814.0
1.34000, 26955.0
1.41000, 2478.0
1.48000, 1404.0
1.55000, 1336.0
1.62000, 1335.0
1.69000, 1452.0
1.76000, 1801.0
1.83000, 1572.0
1.90000, 1436.0
1.97000, 1502.0
2.04000, 1619.0
2.11000, 1629.0
2.18000, 2101.0
2.25000, 2144.0
2.32000, 1729.0
2.39000, 2297.0
2.46000, 1884.0
2.53000, 1677.0
2.60000, 1772.0
2.67000, 1564.0
2.74000, 1517.0
2.81000, 1543.0
2.88000, 1583.0
2.95000, 1487.0
3.02000, 1468.0
3.09000, 1449.0
3.16000, 1460.0
3.23000, 1440.0
3.30000, 1391.0
3.37000, 1384.0
3.44000, 1342.0
3.51000, 1410.0
3.58000, 1335.0
3.65000, 1245.0
3.72000, 1269.0
3.79000, 1219.0
3.86000, 1218.0
3.93000, 1202.0
4.00000, 1194.0
4.07000, 1158.0
4.14000, 1129.0
4.21000, 1108.0
4.28000, 1071.0
4.35000, 1098.0
4.42000, 1030.0
4.49000, 1041.0
4.56000, 1040.0
4.63000, 1003.0
4.70000, 944.0
4.77000, 981.0
4.84000, 971.0
4.91000, 931.0
4.98000, 883.0
5.05000, 881.0
5.12000, 844.0
5.19000, 842.0
5.26000, 830.0
5.33000, 810.0
5.40000, 825.0
5.47000, 752.0
5.54000, 751.0
5.61000, 737.0
5.68000, 738.0
5.75000, 732.0
5.82000, 706.0
5.89000, 716.0
5.96000, 694.0
6.03000, 684.0
6.10000, 701.0
6.17000, 671.0
6.24000, 651.0
6.31000, 600.0
6.38000, 618.0
6.45000, 607.0
6.52000, 607.0
6.59000, 604.0
6.66000, 569.0
6.73000, 552.0
6.80000, 561.0
6.87000, 547.0
6.94000, 539.0
7.01000, 533.0
7.08000, 516.0
7.15000, 526.0
7.22000, 501.0
7.29000, 506.0
7.36000, 460.0
7.43000, 487.0
7.50000, 464.0
7.57000, 462.0
7.64000, 429.0
7.71000, 454.0
7.78000, 408.0
7.85000, 421.0
7.92000, 388.0
7.99000, 411.0
8.06000, 390.0
8.13000, 391.0
8.20000, 401.0
8.27000, 372.0
8.34000, 371.0
8.41000, 386.0
8.48000, 351.0
8.55000, 372.0
8.62000, 355.0
8.69000, 359.0
8.76000, 346.0
8.83000, 329.0
8.90000, 351.0
8.97000, 351.0
9.04000, 396.0
9.11000, 957.0
9.18000, 3106.0
9.25000, 4405.0
9.32000, 2213.0
9.39000, 614.0
9.46000, 326.0
9.53000, 276.0
9.60000, 257.0
9.67000, 272.0
9.74000, 271.0
9.81000, 245.0
9.88000, 266.0
9.95000, 248.0
10.02000, 260.0
10.09000, 282.0
10.16000, 480.0
10.23000, 825.0
10.30000, 787.0
10.37000, 613.0
10.44000, 1102.0
10.51000, 1719.0
10.58000, 1376.0
10.65000, 547.0
10.72000, 240.0
10.79000, 192.0
10.86000, 195.0
10.93000, 184.0
11.00000, 174.0
11.07000, 184.0
11.14000, 180.0
11.21000, 171.0
11.28000, 161.0
11.35000, 183.0
11.42000, 171.0
11.49000, 183.0
11.56000, 191.0
11.63000, 289.0
11.70000, 359.0
11.77000, 299.0
11.84000, 204.0
11.91000, 133.0
11.98000, 125.0
12.05000, 119.0
12.12000, 103.0
12.19000, 109.0
12.26000, 108.0
12.33000, 107.0
12.40000, 97.0
12.47000, 99.0
12.54000, 97.0
12.61000, 91.0
12.68000, 98.0
12.75000, 91.0
12.82000, 86.0
12.89000, 73.0
12.96000, 76.0
13.03000, 83.0
13.10000, 78.0
13.17000, 65.0
13.24000, 60.0
13.31000, 62.0
13.38000, 56.0
13.45000, 62.0
13.52000, 51.0
13.59000, 50.0
13.66000, 45.0
13.73000, 40.0
13.80000, 49.0
13.87000, 50.0
13.94000, 45.0
14.01000, 44.0
14.08000, 30.0
14.15000, 39.0
14.22000, 30.0
14.29000, 30.0
14.36000, 27.0
14.43000, 25.0
14.50000, 25.0
14.57000, 24.0
14.64000, 18.0
14.71000, 14.0
14.78000, 20.0
14.85000, 15.0
14.92000, 16.0
14.99000, 7.0
15.06000, 6.0
15.13000, 6.0
15.20000, 5.0
15.27000, 6.0
15.34000, 4.0
15.41000, 7.0
15.48000, 6.0
15.55000, 6.0
15.62000, 4.0
15.69000, 6.0
15.76000, 2.0
15.83000, 4.0
15.90000, 2.0
15.97000, 1.0
16.04000, 5.0
16.11000, 2.0
16.18000, 6.0
16.25000, 4.0
16.32000, 4.0
16.39000, 5.0
16.46000, 2.0
16.53000, 4.0
16.60000, 2.0
16.67000, 1.0
16.74000, 2.0
16.81000, 3.0
16.88000, 3.0
16.95000, 5.0
17.02000, 7.0
17.09000, 5.0
17.16000, 2.0
17.23000, 2.0
17.30000, 2.0
17.37000, 1.0
17.44000, 2.0
17.51000, 2.0
17.58000, 4.0
17.65000, 3.0
17.72000, 4.0
17.79000, 3.0
17.86000, 4.0
17.93000, 2.0
18.00000, 2.0
18.07000, 2.0
18.14000, 1.0
18.21000, 2.0
18.28000, 1.0
18.35000, 3.0
18.42000, 7.0
18.49000, 5.0
18.56000, 4.0
18.63000, 3.0
18.70000, 0.0
18.77000, 3.0
18.84000, 2.0
18.91000, 2.0
18.98000, 2.0
19.05000, 1.0
19.12000, 0.0
19.19000, 0.0
19.26000, 1.0
19.33000, 1.0
19.40000, 2.0
19.47000, 2.0
19.54000, 1.0
19.61000, 1.0
19.68000, 1.0
19.75000, 2.0
19.82000, 3.0
19.89000, 3.0
19.96000, 1.0
20.03000, 1.0
20.10000, 1.0
20.17000, 1.0
20.24000, 0.0
20.27000, 1.0
#ENDOFDATA   :